Freq(Hz),Voltage(dBm)
-285000,-61.33259964
-279430,-61.4508667
-273860,-62.15269852
-268290,-61.91802979
-262720,-58.70589828
-257150,-58.09671402
-251580,-57.92432404
-246010,-58.45055008
-240440,-59.73507309
-234870,-61.11996078
-229300,-62.08877182
-223730,-62.44924164
-218160,-62.74844742
-212590,-64.01857758
-207020,-65.9421463
-201450,-65.62982178
-195880,-61.41189194
-190310,-60.02066803
-184740,-59.17883301
-179170,-58.24611282
-173600,-56.81775284
-168030,-55.23064423
-162460,-53.92036819
-156890,-52.67248154
-151320,-51.91233826
-145750,-51.64847946
-140180,-53.94185257
-134610,-60.45367432
-129040,-48.32960892
-123470,-43.7833786
-117900,-38.6269989
-112330,-32.78811264
-106760,-27.46450233
-101190,-22.66492271
-95620,-17.99467659
-90050,-13.40540504
-84480,-8.987691879
-78910,-4.7560606
-73340,-0.689171612
-67770,3.205913305
-62200,6.909659863
-56630,10.41703987
-51060,13.73912621
-45490,16.91080856
-39920,19.93712234
-34350,22.84739113
-28780,25.69022942
-23210,28.54664421
-17640,31.55088234
-12070,34.97060394
-6500,39.43953705
-930,47.51724243
4640,41.50251007
10210,36.49642944
15780,32.98045731
21350,30.02728653
26920,27.29143524
32490,24.60762215
38060,21.88348389
43630,19.0627594
49200,16.10761833
54770,13.00991821
60340,9.733505249
65910,6.263792992
71480,2.588629246
77050,-1.315053701
82620,-5.436766148
88190,-9.666027069
93760,-13.88829041
99330,-18.28136635
104900,-23.11195946
110470,-28.11941719
116040,-33.32893753
121610,-40.80969238
127180,-46.07745743
132750,-46.82076263
138320,-46.63195801
143890,-51.12539673
149460,-57.34931564
155030,-65.77575684
160600,-60.82923889
166170,-58.60611725
171740,-57.3134613
177310,-57.15710449
182880,-57.47986603
188450,-59.42898178
194020,-63.56155777
199590,-64.51901245
205160,-63.14447021
210730,-63.53506851
216300,-65.60913086
221870,-68.96500397
227440,-70.59732819
233010,-70.71549988
238580,-66.74871063
244150,-67.59825134
249720,-66.96617889
255290,-75.28222656
260860,-70.88593292
266430,-70.16542053
272000,-70.4098587
277570,-72.23203278
283140,-74.00566101
288710,-74.2311554
294280,-74.41613007
299850,-74.83513641
305420,-70.28494263
310990,-67.81153107
316560,-66.67723083
322130,-65.60012054
327700,-63.31225586
333270,-60.78244019
338840,-59.08363724
344410,-58.55878067
349980,-58.68704605
355550,-59.10699081
361120,-59.78292084
366690,-59.89157486
372260,-56.97703934
377830,-55.15054321
383400,-53.99542999
388970,-53.79785919
394540,-53.9491272
400110,-54.86914444
405680,-56.89215088
411250,-59.81613159
416820,-59.54628372
422390,-59.52988052
427960,-54.00447464
433530,-52.34463882
439100,-51.44292831
444670,-50.7683754
450240,-50.15697479
455810,-49.88397598
461380,-49.97118378
466950,-50.20015717
472520,-50.77384567
478090,-51.62852859
483660,-52.63750076
489230,-53.36231613
494800,-53.0908432
500370,-53.03358078
505940,-53.14904785
511510,-53.796772
517080,-55.24267197
522650,-57.31572723
528220,-59.26337814
533790,-60.27555084
539360,-61.17868423
544930,-64.99010468
550500,-62.26998901
556070,-62.09745407
561640,-53.58350372
567210,-51.54642105
572780,-50.89390182
578350,-50.97212219
583920,-51.38382339
589490,-51.25360107
595060,-50.64522171
600630,-50.4807663
606200,-50.56121445
611770,-51.00242615
617340,-52.18069458
622910,-54.43034363
628480,-58.39044571
634050,-62.89484406
639620,-58.95384216
645190,-57.5264473
650760,-57.32909012
656330,-57.20259857
661900,-56.37030792
667470,-54.89675903
673040,-53.26864243
678610,-52.1328125
684180,-51.8943367
689750,-51.98956299
695320,-52.67195511
700890,-53.57767105
706460,-53.52110672
712030,-53.55416489
717600,-51.90969849
723170,-51.46351624
728740,-51.50426102
734310,-51.8562355
739880,-53.2253685
745450,-55.68242264
751020,-58.64042282
756590,-60.96507645
762160,-63.96251297
767730,-69.87102509
773300,-62.04844284
778870,-58.73773193
784440,-56.73656082
790010,-55.40120697
795580,-54.30252075
801150,-53.44637299
806720,-53.09766006
812290,-53.15200806
817860,-53.70504761
823430,-55.76980972
829000,-60.65242004
834570,-63.45103836
840140,-58.30833435
845710,-57.33237839
851280,-57.38070679
856850,-58.18898773
862420,-59.23400116
867990,-59.24539566
873560,-58.11588287
879130,-58.17316818
884700,-58.59626007
890270,-58.62870407
895840,-58.54960632
901410,-58.64508057
906980,-59.47333527
912550,-61.33370209
918120,-64.02248383
923690,-67.63065338
929260,-65.16345978
934830,-65.00419617
940400,-57.97579575
945970,-56.78107834
951540,-56.72967529
957110,-56.83888245
962680,-56.33280945
968250,-56.10397339
973820,-56.2005806
979390,-57.59444809
984960,-58.47101212
990530,-58.39022827
996100,-53.75715637
1001670,-53.31121063
1007240,-53.40853882
1012810,-54.67720413
1018380,-56.71992493
1023950,-57.50289154
1029520,-55.95866394
1035090,-54.97470093
1040660,-53.78521729
1046230,-52.91577911
1051800,-52.89738083
1057370,-53.52478409
1062940,-57.54784012
1068510,-64.29094696
1074080,-61.97257614
1079650,-61.67610931
1085220,-58.89075851
1090790,-57.4781456
1096360,-57.53700256
1101930,-59.92486572
1107500,-54.24640656
1113070,-51.39685822
1118640,-50.34454727
1124210,-50.35789108
1129780,-50.78071594
1135350,-51.7125473
1140920,-52.36115265
1146490,-52.71332169
1152060,-53.16477966
1157630,-53.87723923
1163200,-54.6306839
1168770,-55.21675491
1174340,-55.71709442
1179910,-56.10370636
1185480,-55.45143127
1191050,-55.44345093
1196620,-53.79949951
1202190,-53.64105606
1207760,-53.71097946
1213330,-54.56826019
1218900,-57.08675385
1224470,-63.35082245
1230040,-67.54432678
1235610,-67.41889191
1241180,-61.82542419
1246750,-60.5054245
1252320,-60.04276657
1257890,-59.76106262
1263460,-59.51804733
1269030,-59.52207184
1274600,-59.66585541
1280170,-60.34434128
1285740,-61.65471649
1291310,-63.26422882
1296880,-64.47473145
1302450,-64.7598877
1308020,-60.74165726
1313590,-58.2937088
1319160,-56.36570358
1324730,-55.09758759
1330300,-54.7575798
1335870,-54.81156921
1341440,-55.71514893
1347010,-57.92079926
1352580,-61.60344315
1358150,-66.7661972
1363720,-70.57601166
1369290,-70.83815002
1374860,-67.84337616
1380430,-66.20821381
1386000,-64.41739655
1391570,-63.03847504
1397140,-62.0030365
1402710,-60.74742126
1408280,-59.430233
1413850,-58.80793762
1419420,-58.83466721
1424990,-59.88593292
1430560,-64.53588104
1436130,-69.91648865
1441700,-64.3877182
1447270,-62.61779404
1452840,-62.48271179
1458410,-63.24155807
1463980,-67.6791687
1469550,-67.50479126
1475120,-60.47779465
1480690,-61.07514954
1486260,-60.27761078
1491830,-68.36079407
1497400,-62.35248947
1502970,-59.74074554
1508540,-58.84004593
1514110,-58.83795166
1519680,-59.03475189
1525250,-59.27262497
1530820,-59.25769806
1536390,-59.32427216
1541960,-59.92794418
1547530,-61.56705093
1553100,-61.92479324
1558670,-61.8392601
1564240,-57.32289505
1569810,-56.72866058
1575380,-56.77725601
1580950,-58.22669983
1586520,-62.79750061
1592090,-66.02240753
1597660,-61.18811417
1603230,-59.03824997
1608800,-56.84550858
1614370,-54.67830658
1619940,-52.95879745
1625510,-51.8945694
1631080,-51.49728394
1636650,-51.51037979
1642220,-51.76825714
1647790,-52.68608475
1653360,-54.26929855
1658930,-56.16260529
1664500,-57.19205475
1670070,-57.18271637
1675640,-55.76296616
1681210,-55.75263214
1686780,-56.15346527
1692350,-58.18529129
1697920,-63.79096603
1703490,-68.37496185
1709060,-63.20724869
1714630,-61.288414
1720200,-59.11447144
1725770,-56.62322998
1731340,-54.67843246
1736910,-54.04043198
1742480,-54.07872009
1748050,-55.50777054
1753620,-60.24090195
1759190,-65.35955048
1764760,-64.59044647
1770330,-64.53417206
1775900,-59.36215591
1781470,-57.64737701
1787040,-57.43454742
1792610,-57.74485016
1798180,-59.88751221
1803750,-61.14378738
1809320,-56.81007767
1814890,-55.66305923
1820460,-55.66424942
1826030,-56.51665878
1831600,-58.88734436
1837170,-59.85618973
1842740,-59.17441559
1848310,-59.24979019
1853880,-58.10369873
1859450,-56.38608932
1865020,-55.04701614
1870590,-54.23730087
1876160,-53.65218353
1881730,-53.07397461
1887300,-52.67683411
1892870,-52.64889526
1898440,-52.78025055
1904010,-53.51249313
1909580,-54.91482162
1915150,-56.68868637
1920720,-57.91281509
1926290,-58.34230042
1931860,-58.85800552
1937430,-60.44728851
1943000,-62.25495911
1948570,-62.16478729
1954140,-57.37249756
1959710,-56.70685196
1965280,-56.7400589
1970850,-57.80176163
1976420,-59.43170547
1981990,-59.96302795
1987560,-58.35005951
1993130,-57.00756836
1998700,-56.20455551
2004270,-56.17069626
2009840,-56.49526596
2015410,-57.80401993
2020980,-59.5682869
2026550,-60.74783707
2032120,-57.58601379
2037690,-55.09350586
2043260,-53.48411179
2048830,-53.16211319
2054400,-53.27463531
2059970,-54.64267731
2065540,-57.28178787
2071110,-59.67437363
2076680,-58.71606445
2082250,-58.64242935
2087820,-55.82431412
2093390,-57.16706467
2098960,-55.85163116
2104530,-63.54992676
2110100,-57.88217545
2115670,-54.33758545
2121240,-52.35871887
2126810,-52.02176666
2132380,-52.19553757
2137950,-54.12473297
2143520,-58.07913208
2149090,-59.39867401
2154660,-55.35450363
2160230,-53.98626328
2165800,-53.59133148
2171370,-53.60916519
2176940,-54.12217331
2182510,-55.19799423
2188080,-56.43313217
2193650,-58.03128052
2199220,-60.42703629
2204790,-61.50494766
2210360,-59.06637573
2215930,-60.5352211
2221500,-59.0737915
2227070,-66.53513336
2232640,-57.53927612
2238210,-54.15580368
2243780,-52.75244141
2249350,-53.17681885
2254920,-52.72027969
2260490,-55.2250061
2266060,-57.43657684
2271630,-57.38647461
2277200,-53.05255127
2282770,-51.26706314
2288340,-50.22320938
2293910,-49.8517952
2299480,-49.8519516
2305050,-49.94845581
2310620,-50.13508987
2316190,-50.35432053
2321760,-51.09439468
2327330,-53.09155655
2332900,-56.54639053
2338470,-59.76249313
2344040,-59.00030899
2349610,-58.86859131
2355180,-51.64722443
2360750,-48.34805679
2366320,-45.82317734
2371890,-44.38124466
2377460,-44.14120102
2383030,-44.28205872
2388600,-45.70566559
2394170,-48.9539032
2399740,-54.49324799
2405310,-57.60610962
2410880,-54.95721436
2416450,-54.24023819
2422020,-54.16617203
2427590,-54.3058548
2433160,-55.54869461
2438730,-58.9333725
2444300,-61.96736908
2449870,-62.03222656
2455440,-62.92113495
2461010,-63.27743912
2466580,-53.87509918
2472150,-49.4771843
2477720,-46.5447197
2483290,-45.15700912
2488860,-45.02795029
2494430,-45.26425171
2500000,-46.45288467
2505570,-47.53807068
2511140,-47.07608032
2516710,-47.06885529
2522280,-46.93952942
2527850,-47.41967773
2533420,-48.4852066
2538990,-51.2634201
2544560,-52.7533493
2550130,-52.59503555
2555700,-47.40266418
2561270,-47.29402161
2566840,-47.69301224
2572410,-48.10595322
2577980,-43.83391571
2583550,-41.46582413
2589120,-39.72042847
2594690,-38.64593506
2600260,-38.21590424
2605830,-37.88690567
2611400,-36.66301727
2616970,-34.7673645
2622540,-33.39334488
2628110,-33.23211288
2633680,-33.49843979
2639250,-34.00185013
2644820,-29.69045067
2650390,-27.40583229
2655960,-25.47491646
2661530,-23.53463173
2667100,-21.64173317
2672670,-20.03723145
2678240,-18.8470726
2683810,-18.05415535
2689380,-17.57995415
2694950,-17.35294533
2700520,-17.31948662
2706090,-17.34041023
2711660,-17.49501801
2717230,-17.76776314
2722800,-18.0770092
2728370,-18.41343117
2733940,-18.90530586
2739510,-19.81152725
2745080,-21.43996811
2750650,-24.00364685
2756220,-27.25067329
2761790,-30.2449894
2767360,-32.17416
2772930,-32.94255829
2778500,-33.79644012
2784070,-37.17700958
2789640,-41.21993256
2795210,-41.10422516
2800780,-38.59314728
2806350,-38.84821701
2811920,-41.27001572
2817490,-45.32909393
2823060,-47.35509872
2828630,-47.62247086
2834200,-47.88747787
2839770,-48.42066956
2845340,-49.00436401
2850910,-49.0414772
2856480,-46.18876266
2862050,-44.93756866
2867620,-44.61151123
2873190,-44.6337204
2878760,-45.08971786
2884330,-45.6312027
2889900,-45.45817184
2895470,-45.43671799
2901040,-45.65312958
2906610,-47.15853119
2912180,-50.6246376
2917750,-52.72161484
2923320,-51.66598892
2928890,-51.77884293
2934460,-53.41159058
2940030,-56.39707565
2945600,-58.06085968
2951170,-58.03598404
2956740,-56.82546234
2962310,-55.50062561
2967880,-52.79344177
2973450,-49.55134583
2979020,-46.91407776
2984590,-45.7166214
2990160,-45.70941925
2995730,-46.71210098
3001300,-50.39152527
3006870,-52.33875275
3012440,-50.51452637
3018010,-52.00222015
3023580,-50.54334259
3029150,-56.73690796
3034720,-56.03054428
3040290,-55.91346359
3045860,-51.98994064
3051430,-51.61780167
3057000,-51.64213181
3062570,-52.15156937
3068140,-52.78614426
3073710,-53.33284378
3079280,-54.13218689
3084850,-55.49593735
3090420,-58.15644836
3095990,-64.68554688
3101560,-57.8167572
3107130,-54.05542755
3112700,-52.24314117
3118270,-52.05882263
3123840,-52.29663086
3129410,-53.5233345
3134980,-55.10919952
3140550,-56.84508133
3146120,-57.70086288
3151690,-57.66565704
3157260,-56.438591
3162830,-56.50751495
3168400,-57.83200073
3173970,-61.14829254
3179540,-65.89585876
3185110,-66.68460083
3190680,-61.72171783
3196250,-60.47892761
3201820,-60.01589966
3207390,-59.99677277
3212960,-60.19375229
3218530,-61.22102737
3224100,-63.75109482
3229670,-69.98104095
3235240,-77.16023254
3240810,-76.93027496
3246380,-65.93799591
3251950,-65.79506683
3257520,-64.75959015
3263090,-68.61116791
3268660,-59.09518051
3274230,-57.23087311
3279800,-57.19277954
3285370,-57.95544052
3290940,-59.84305191
3296510,-60.47971725
3302080,-60.25883102
3307650,-60.3419075
3313220,-61.96587372
3318790,-65.65007019
3324360,-65.00693512
3329930,-64.9445343
3335500,-63.6599617
3341070,-63.24688721
3346640,-61.74147415
3352210,-59.82165146
3357780,-58.15447998
3363350,-56.7096405
3368920,-55.32852936
3374490,-54.13243484
3380060,-53.46109772
3385630,-53.42802811
3391200,-53.76111603
3396770,-55.58534241
3402340,-59.76989746
3407910,-64.4970932
3413480,-64.13505554
3419050,-64.09797668
3424620,-62.59070969
3430190,-62.50072098
3435760,-62.67348862
3441330,-63.7022171
3446900,-63.89904785
3452470,-63.87350845
3458040,-63.43511963
3463610,-64.00350952
3469180,-65.91065979
3474750,-65.8174057
3480320,-58.98282623
3485890,-56.29594421
3491460,-54.90583801
3497030,-54.71221161
3502600,-54.84664917
3508170,-55.84015656
3513740,-57.24491501
3519310,-58.92720795
3524880,-61.47789764
3530450,-63.04119873
3536020,-61.3710556
3541590,-63.47620773
3547160,-61.39242172
3552730,-69.19471741
3558300,-62.66308212
3563870,-60.76816177
3569440,-60.65203476
3575010,-61.23249054
3580580,-63.90272141
3586150,-67.39704132
3591720,-66.85324097
3597290,-66.74868774
3602860,-62.11156464
3608430,-60.78482056
3614000,-60.37234116
3619570,-60.37578583
3625140,-60.35977173
3630710,-59.6867981
3636280,-59.29912949
3641850,-59.31027603
3647420,-60.24580002
3652990,-63.02775574
3658560,-65.70396423
3664130,-65.88608551
3669700,-64.59957886
3675270,-65.04521942
3680840,-64.59600067
3686410,-67.21147919
3691980,-67.44016266
3697550,-67.34851837
3703120,-63.82673264
3708690,-63.14807892
3714260,-63.03928375
3719830,-62.81851578
3725400,-61.63757706
3730970,-59.87742233
3736540,-58.65369034
3742110,-58.53470612
3747680,-58.94593048
3753250,-61.50524139
3758820,-64.4112854
3764390,-64.3482132
3769960,-61.14965439
3775530,-60.19559097
3781100,-59.94355392
3786670,-59.96672058
3792240,-60.61960602
3797810,-62.26995087
3803380,-64.26624298
3808950,-64.76437378
3814520,-64.73303986
3820090,-64.73123932
3825660,-63.25769806
3831230,-63.14313126
3836800,-63.5992012
3842370,-65.92347717
3847940,-62.25357437
3853510,-59.70863342
3859080,-58.05929947
3864650,-57.24027252
3870220,-57.09295273
3875790,-57.14775467
3881360,-57.86882019
3886930,-59.58734512
3892500,-62.00634384
3898070,-63.4659462
3903640,-62.16946411
3909210,-62.10367584
3914780,-59.71795273
3920350,-59.50986481
3925920,-59.58475494
3931490,-60.62989044
3937060,-63.10863876
3942630,-67.06919861
3948200,-71.86162567
3953770,-73.54499817
3959340,-65.4363327
3964910,-61.38129044
3970480,-58.69455719
3976050,-57.24162674
3981620,-56.63611221
3987190,-56.57091141
3992760,-56.67051697
3998330,-57.43483353
4003900,-59.12274933
4009470,-61.58810806
4015040,-63.6235199
4020610,-64.11489868
4026180,-63.15242767
4031750,-63.13376999
4037320,-63.50149155
4042890,-64.17318726
4048460,-60.31465149
4054030,-58.03666306
4059600,-56.5757637
4065170,-56.040802
4070740,-56.04382706
4076310,-56.61671066
4081880,-58.56645203
4087450,-61.7328949
4093020,-62.63071823
4098590,-62.57381821
4104160,-60.96588135
4109730,-60.98825455
4115300,-61.84560394
4120870,-63.66698074
4126440,-65.00865936
4132010,-64.957901
4137580,-61.68692017
4143150,-61.09814453
4148720,-61.1072197
4154290,-61.83775711
4159860,-63.0215416
4165430,-63.91376495
4171000,-65.35952759
4176570,-69.0661087
4182140,-70.50563049
4187710,-70.42443848
4193280,-69.32321167
4198850,-71.2377243
4204420,-70.4777832
4209990,-70.29702759
4215560,-62.62627792
4221130,-59.81848907
4226700,-58.24450684
4232270,-58.01706696
4237840,-58.21565628
4243410,-59.87429047
4248980,-63.05672836
4254550,-67.01038361
4260120,-70.47112274
4265690,-72.27277374
4271260,-70.40093994
4276830,-70.28846741
4282400,-64.45082855
4287970,-61.93678284
4293540,-60.24605179
4299110,-59.39962769
4304680,-59.25600815
4310250,-59.311409
4315820,-59.9879837
4321390,-61.8330574
4326960,-66.59746552
4332530,-70.5641861
4338100,-64.79019165
4343670,-63.03172684
4349240,-62.70999146
4354810,-62.83061218
4360380,-64.39806366
4365950,-67.77075958
4371520,-68.42234802
4377090,-68.35323334
4382660,-65.5995636
4388230,-65.06628418
4393800,-65.04923248
4399370,-65.18610382
4404940,-64.35658264
4410510,-62.27069473
4416080,-60.04096603
4421650,-58.6361084
4427220,-58.44017792
4432790,-58.682724
4438360,-60.81835938
4443930,-67.54174042
4449500,-67.53157806
4455070,-67.37136841
4460640,-62.2517662
4466210,-61.40193558
4471780,-61.37152481
4477350,-61.71039963
4482920,-63.0755043
4488490,-65.13253021
4494060,-67.29139709
4499630,-70.21526337
4505200,-70.99568939
4510770,-70.81749725
4516340,-63.71996307
4521910,-61.8764534
4527480,-61.2395401
4533050,-61.2362442
4538620,-61.63254929
4544190,-62.96878433
4549760,-65.41677094
4555330,-68.37553406
4560900,-66.54751587
4566470,-66.4493103
4572040,-63.35557556
4577610,-62.28087616
4583180,-61.17973709
4588750,-60.73164749
4594320,-60.74302673
4599890,-61.62747574
4605460,-63.90122604
4611030,-66.6492157
4616600,-68.15248871
4622170,-68.02233124
4627740,-68.10829163
4633310,-69.68384552
4638880,-74.34044647
4644450,-76.77661896
4650020,-77.48995972
4655590,-81.02077484
4661160,-69.72787476
4666730,-65.25712585
4672300,-62.67946625
4677870,-61.53931046
4683440,-61.19215012
4689010,-60.93749619
4694580,-60.45504379
4700150,-60.05265808
4705720,-60.04443359
4711290,-60.47546387
4716860,-62.73272324
4722430,-66.65139008
4728000,-63.16636658
4733570,-61.02865601
4739140,-59.8192215
4744710,-59.53494644
4750280,-59.58030319
4755850,-60.5858078
4761420,-63.52872086
4766990,-68.08561707
4772560,-67.21899414
4778130,-67.15546417
4783700,-66.22196198
4789270,-66.63889313
4794840,-68.12325287
4800410,-69.68146515
4805980,-69.03948212
4811550,-68.98213196
4817120,-66.30941772
4822690,-65.0641098
4828260,-64.16864014
4833830,-63.96199036
4839400,-64.02588654
4844970,-65.05693054
4850540,-68.021492
4856110,-76.33958435
4861680,-72.19898987
4867250,-72.04360199
4872820,-67.07111359
4878390,-66.12893677
4883960,-66.04194641
4889530,-66.20529175
4895100,-67.28136444
4900670,-70.29872894
4906240,-72.84105682
4911810,-72.69261932
4917380,-68.88858032
4922950,-68.88395691
4928520,-67.84841919
4934090,-66.09295654
4939660,-64.97110748
4945230,-64.78919983
4950800,-64.83740234
4956370,-65.12272644
4961940,-65.36528015
4967510,-65.93592072
4973080,-66.94969177
4978650,-67.89115906
4984220,-69.01454926
4989790,-69.62869263
4995360,-67.27996063
5000930,-67.68730927
5006500,-67.19371033
5012070,-70.31137848
5017640,-75.67510223
5023210,-79.80500031
5028780,-69.25112915
5034350,-66.19812012
5039920,-65.80088806
5045490,-66.32337952
5051060,-67.58132935
5056630,-67.45152283
5062200,-62.14542007
5067770,-60.96914673
5073340,-60.80200195
5078910,-60.90462875
5084480,-61.8352356
5090050,-63.66923904
5095620,-65.89507294
5101190,-66.84976196
5106760,-64.75527191
5112330,-64.32141876
5117900,-64.3532486
5123470,-65.43231201
5129040,-67.73429108
5134610,-69.36222076
5140180,-69.78198242
5145750,-70.6651001
5151320,-70.29883575
5156890,-70.18213654
5162460,-66.57933044
5168030,-68.67446899
5173600,-66.58379364
5179170,-74.61167145
5184740,-64.91282654
5190310,-61.77101898
5195880,-60.72677612
5201450,-61.52198029
5207020,-60.72883987
5212590,-64.38739777
5218160,-65.66848755
5223730,-65.53617096
5229300,-60.76244736
5234870,-60.41476059
5240440,-60.56697083
5246010,-62.32772446
5251580,-65.43891144
5257150,-66.47351837
5262720,-66.53784943
5268290,-68.33435059
5273860,-67.88710785
5279430,-67.78894043
5285000,-66.69406891
